Version =  1.64
NumCams = 1
Cam     Date       Time        Roll     Pitch       Yaw
---  ----------  --------  --------  --------  --------
101  04/21/2013  08:00:00      0.00     25.00      0.00
-------------------------------------------------------
Extinction Fit: Multi-Day = 2
Extinction Coef Scale     = 1.008800
Extinction Coef Rayleigh  = 2.846974
Extinction Coef Oxygen2   = 2.846974
Extinction Coef Ozone     = 0.761201
Extinction Coef Dust      = 17.575153
Extinction Coef Water     = 12.857024
-------------------------------------------------------
Number of wavelengths      = 1001
Responsivity normalization = 302172611547561.830
-------------------------------------------------------
Wave(nm)    WeightSum   DayResp     CumResp     SmoothResp  DayExtn     CumExtn
  350.0000       4.207    2.298936    2.551661    0.000000   -1.000000    0.503740
  350.6000       4.397   -5.254764   -1.028988    0.000000   -1.000000    0.505780
  351.2000       4.409   -6.482242   -1.051913    0.000000   -1.000000    0.507810
  351.8000       4.757   -3.656777    0.979085    0.000000   -1.000000    0.509840
  352.4000       4.922    0.597481    1.723408    0.000000   -1.000000    0.511850
  353.0000       5.741   -2.705244   -0.154721    0.000000   -1.000000    0.513860
  353.6000       5.044   -9.124421    0.131125    0.000000   -1.000000    0.515850
  354.2000       5.218    1.068346    0.643099    0.000000   -1.000000    0.517840
  354.8000       5.046    2.528073   -0.123581    0.000000   -1.000000    0.519810
  355.4000       5.219    6.537539   -0.209279    0.000000   -1.000000    0.521780
  356.0000       5.219    6.839315   -0.123903    0.000000   -1.000000    0.523730
  356.6000       5.430   -0.951507   -0.278945    0.000000   -1.000000    0.525680
  357.2000       6.246  -13.494427   -2.263700    0.000000   -1.000000    0.527620
  357.8000       5.749   -9.860732   -3.382335    0.000000   -1.000000    0.529540
  358.4000       6.421   -0.993794   -2.363940    0.000000   -1.000000    0.531460
  359.0000       6.931    4.005403   -0.526267    0.000000   -1.000000    0.533370
  359.6000       6.602   10.835407   -1.582367    0.000000   -1.000000    0.535260
  360.2000       7.045    5.853707   -1.443349    0.000000   -1.000000    0.537150
  360.8000       6.668   -1.498615   -1.380667    0.000000   -1.000000    0.539030
  361.4000       6.706    0.724831   -0.551249    0.000000   -1.000000    0.540890
  362.0000       7.219    0.383136    0.045129    0.000000   -1.000000    0.542750
  362.6000       7.601   -1.412865   -0.466512    0.000000   -1.000000    0.544600
  363.2000       7.616    0.613714   -0.482106    0.000000   -1.000000    0.546440
  363.8000       7.446   -0.815600    0.560121    0.000000   -1.000000    0.548270
  364.4000       7.614    0.000621    0.604254    0.000000   -1.000000    0.550090
  365.0000       7.399   -1.052695    0.201594    0.000000   -1.000000    0.551900
  365.6000       7.665   -0.816650    0.230797    0.000000   -1.000000    0.553700
  366.2000       7.815   -1.328280    0.331414    0.000000   -1.000000    0.555500
  366.8000       8.634   -1.747134    0.168685    0.000000   -1.000000    0.557280
  367.4000       8.748   -3.816894   -0.117045    0.000000   -1.000000    0.559050
  368.0000       8.917   -5.124314    0.102663    0.000000   -1.000000    0.560820
  368.6000       8.154   -5.142363    0.728197    0.000000   -1.000000    0.562570
  369.2000       8.326   -2.992908    0.002341    0.000000   -1.000000    0.564320
  369.8000       9.369   -1.728626   -0.413955    0.000000   -1.000000    0.566050
  370.4000       8.835   -1.336653   -0.012621    0.000000   -1.000000    0.567780
  371.0000       8.497   -1.771056    0.102405    0.000000   -1.000000    0.569500
  371.6000       9.295    0.158866    0.355096    0.000000   -1.000000    0.571210
  372.2000       9.120   -0.750580    0.855168    0.000000   -1.000000    0.572910
  372.8000       8.891   -0.147779    0.597160    0.000000   -1.000000    0.574600
  373.4000       8.901   -3.175859    0.496300    0.000000   -1.000000    0.576280
  374.0000       9.028   -3.075420   -0.766374    0.000000   -1.000000    0.577950
  374.6000       9.239    2.439738   -0.273492    0.000000   -1.000000    0.579620
  375.2000       9.421    3.955586   -0.320574    0.000000   -1.000000    0.581270
  375.8000       9.426    4.773574    0.400650    0.000000   -1.000000    0.582920
  376.4000      10.082    1.652216    0.515445    0.000000   -1.000000    0.584550
  377.0000       9.967   -2.384476    0.220282    0.000000   -1.000000    0.586180
  377.6000      10.480   -1.930979    0.238364    0.000000   -1.000000    0.587800
  378.2000      10.277   -2.032873    0.353952    0.000000   -1.000000    0.589410
  378.8000      10.495   -1.875092   -0.422721    0.000000   -1.000000    0.591010
  379.4000      10.526    0.700471   -1.057020    0.000000   -1.000000    0.592610
  380.0000      10.691    0.838491   -0.899074    0.000000   -1.000000    0.594190
  380.6000      10.916    0.744511   -0.724681    0.000000   -1.000000    0.595770
  381.2000      11.081    3.217258   -0.723412    0.000000   -1.000000    0.597340
  381.8000      10.840    1.664914   -0.501112    0.000000   -1.000000    0.598900
  382.4000      11.081   -3.806509   -0.514958    0.001483    0.996749    0.797498
  383.0000      11.315   -1.653691   -0.114956    0.006653    0.997536    0.787860
  383.6000      11.745   -1.361863    0.159187    0.011854    0.997166    0.790624
  384.2000      11.190    2.805452    0.367184    0.017083    0.936322    0.799320
  384.8000      11.349    4.282640   -0.142339    0.022337    0.997559    0.800790
  385.4000      12.025    4.023869   -0.139864    0.027615    0.996749    0.779691
  386.0000      11.523    7.358894    0.113032    0.032913    0.993270    0.788599
  386.6000      11.573    2.604791   -0.440553    0.038228    0.995466    0.802560
  387.2000      12.001   -2.233911   -0.209147    0.043559    0.925730    0.802164
  387.8000      11.683   -2.002835    0.100889    0.048901    0.970748    0.768165
  388.4000      11.781   -4.112371   -0.052942    0.054254    0.909679    0.779047
  389.0000      12.685   -0.254562   -0.284613    0.059612    0.985328    0.809497
  389.6000      12.347    1.087199   -0.531020    0.064975    0.986643    0.793488
  390.2000      13.019    0.370355   -0.234797    0.070339    0.977335    0.778267
  390.8000      13.020    0.841098    0.185379    0.075702    0.870193    0.768055
  391.4000      13.241    0.470779    0.231925    0.081060    0.965749    0.761321
  392.0000      13.138   -0.942937    0.371648    0.086411    0.982573    0.758878
  392.6000      13.296   -1.359312    0.585077    0.091752    0.931382    0.770512
  393.2000      13.951   -1.294729    0.570988    0.097081    0.932904    0.786882
  393.8000      13.879    1.159741    0.715176    0.102395    0.917769    0.781393
  394.4000      13.996    1.186129    0.242901    0.107691    0.899332    0.757391
  395.0000      12.896   -1.013799    0.057645    0.112968    0.901561    0.722798
  395.6000      13.765   -2.459125    0.213571    0.118222    0.884062    0.755641
  396.2000      12.923   -1.147334    0.377457    0.123451    0.941579    0.794170
  396.8000      13.996    1.848872    0.028061    0.128653    0.867277    0.766395
  397.4000      14.355    0.539818    0.037156    0.133826    0.927569    0.773648
  398.0000      14.888    0.544340    0.330325    0.138967    0.939518    0.781148
  398.6000      15.062    2.437689    0.391748    0.144076    0.890692    0.766622
  399.2000      15.158    1.234560    0.122763    0.149149    0.782775    0.746720
  399.8000      14.890    1.395421    0.175684    0.154186    0.878951    0.726997
  400.4000      15.159    1.473826    0.108751    0.159184    0.738049    0.742437
  401.0000      15.771    0.998263    0.076493    0.164142    0.791989    0.712355
  401.6000      14.949    0.574881    0.295171    0.169058    0.811742    0.731205
  402.2000      28.047    0.656215    0.483202    0.173932    0.871060    0.726200
  402.8000      27.748    1.481455    0.883677    0.178762    0.955297    0.749845
  403.4000      27.975    2.414499    0.916843    0.183548    0.833718    0.732707
  404.0000      28.378    1.602953    0.455560    0.188288    0.807164    0.734264
  404.6000      28.260   -0.214177    0.136770    0.192981    0.906993    0.735295
  405.2000      28.156   -0.025343   -0.005369    0.197627    0.825848    0.728373
  405.8000      28.947   -0.443814    0.108067    0.202226    0.927748    0.732095
  406.4000      28.924   -1.125755    0.097026    0.206777    0.955503    0.729363
  407.0000      28.911   -1.373020    0.134724    0.211281    0.772027    0.681955
  407.6000      29.266   -0.714550    0.288799    0.215736    0.806451    0.729617
  408.2000      29.566   -0.425875    0.162787    0.220143    0.633618    0.684012
  408.8000      29.520   -0.159034    0.238292    0.224503    0.803447    0.709685
  409.4000      29.229   -0.372568    0.328855    0.228815    0.892805    0.710064
  410.0000      29.928   -0.338697    0.190293    0.233080    0.927322    0.738799
  410.6000      30.038   -0.081044    0.236099    0.237298    0.754931    0.770999
  411.2000      30.395   -0.103634    0.284350    0.241471    0.840987    0.761435
  411.8000      30.007   -0.441098    0.231876    0.245599    0.960853    0.716031
  412.4000      31.063   -0.490032    0.380708    0.249682    0.884408    0.728440
  413.0000      31.097    0.378485    0.331337    0.253723    0.832527    0.746083
  413.6000      30.991    0.303303    0.350428    0.257720    0.922671    0.768472
  414.2000      30.884    0.023639    0.295990    0.261677    0.919012    0.727950
  414.8000      31.038    0.628092    0.334942    0.265594    0.901663    0.756550
  415.4000      31.556    0.473179    0.293775    0.269472    0.872373    0.776746
  416.0000      31.913    0.184527    0.254520    0.273312    0.912002    0.775073
  416.6000      31.969   -0.412710    0.255008    0.277116    0.881855    0.737778
  417.2000      31.621   -0.731026    0.342911    0.280886    0.887579    0.771132
  417.8000      31.791    0.355839    0.331456    0.284622    0.838310    0.740052
  418.4000      32.194    0.232278    0.227322    0.288326    0.808037    0.738526
  419.0000      32.919   -0.484310    0.133548    0.291999    0.782265    0.730432
  419.6000      32.719    0.072397    0.034724    0.295644    0.801072    0.756421
  420.2000      32.785    0.047523    0.119519    0.299261    0.815086    0.760370
  420.8000      33.076   -0.271776    0.200206    0.302853    0.861823    0.772001
  421.4000      32.902   -0.410237    0.237218    0.306419    0.756597    0.746689
  422.0000      33.062   -0.096601    0.355959    0.309963    0.779026    0.768496
  422.6000      32.962    0.744400    0.362257    0.313485    0.702621    0.695741
  423.2000      33.193    0.757010    0.285024    0.316987    0.819149    0.723352
  423.8000      33.929    0.942478    0.318415    0.320471    0.774568    0.741616
  424.4000      33.890    0.794762    0.236564    0.323937    0.824825    0.757663
  425.0000      34.353    0.604648    0.315752    0.327387    0.830308    0.730025
  425.6000      34.230    0.747551    0.369509    0.330822    0.813169    0.733040
  426.2000      34.446    0.784900    0.361731    0.334244    0.773554    0.721232
  426.8000      35.043    0.446750    0.397309    0.337654    0.695062    0.758471
  427.4000      35.542    0.160398    0.412814    0.341052    0.850374    0.752855
  428.0000      35.157    0.199245    0.386251    0.344441    0.780430    0.782729
  428.6000      35.472    0.200961    0.461868    0.347821    0.798167    0.786059
  429.2000      35.755    0.251759    0.370140    0.351194    0.649982    0.750105
  429.8000      35.132    0.485474    0.249262    0.354559    0.600371    0.748328
  430.4000      35.479    0.226492    0.200101    0.357919    0.851193    0.763225
  431.0000      35.351   -0.049296    0.275161    0.361273    0.816117    0.750048
  431.6000      35.892    0.066961    0.366440    0.364623    0.725695    0.755204
  432.2000      35.990    0.072945    0.362064    0.367969    0.723108    0.720790
  432.8000      35.746    0.297623    0.345998    0.371313    0.605240    0.689903
  433.4000      36.280    0.517861    0.330072    0.374654    0.791346    0.742867
  434.0000      36.700    0.558203    0.357196    0.377993    0.832558    0.742105
  434.6000      36.090    0.657237    0.417059    0.381330    0.837645    0.756600
  435.2000      36.974    0.412314    0.432973    0.384667    0.867004    0.776442
  435.8000      37.211    0.320292    0.446514    0.388004    0.756251    0.735103
  436.4000      37.187    0.375290    0.421744    0.391340    0.851107    0.736918
  437.0000      37.403    0.506406    0.367890    0.394676    0.832734    0.766283
  437.6000      37.490    0.380943    0.374004    0.398012    0.850508    0.695631
  438.2000      38.005    0.564133    0.408745    0.401349    0.795293    0.729873
  438.8000      38.114    0.562118    0.414896    0.404686    0.794544    0.736266
  439.4000      37.662    0.441445    0.464749    0.408024    0.718796    0.759567
  440.0000      38.501    0.330191    0.413412    0.411363    0.809730    0.753694
  440.6000      38.552    0.229605    0.451333    0.414702    0.749963    0.733029
  441.2000      38.379    0.476684    0.423279    0.418042    0.802054    0.774685
  441.8000      38.248    0.478902    0.392659    0.421382    0.739877    0.731103
  442.4000      37.838    0.372496    0.425638    0.424723    0.670427    0.743842
  443.0000      38.765    0.427724    0.441039    0.428064    0.777560    0.775117
  443.6000      39.063    0.461909    0.410459    0.431406    0.773126    0.747919
  444.2000      39.168    0.467725    0.450465    0.434747    0.633119    0.790119
  444.8000      39.141    0.204646    0.437622    0.438089    0.734935    0.771899
  445.4000      39.689    0.166565    0.436681    0.441430    0.822710    0.764376
  446.0000      40.101    0.459359    0.466297    0.444770    0.797974    0.747055
  446.6000      40.385    0.804581    0.491851    0.448110    0.794849    0.747573
  447.2000      40.314    0.788949    0.506658    0.451448    0.838737    0.756014
  447.8000      40.420    0.659012    0.478652    0.454786    0.826809    0.775072
  448.4000      41.157    0.593450    0.428386    0.458121    0.856988    0.770676
  449.0000      41.079    0.519765    0.384288    0.461455    0.784641    0.770264
  449.6000      40.985    0.477420    0.450198    0.464787    0.719604    0.761923
  450.2000      41.375    0.461071    0.521866    0.468116    0.880512    0.780514
  450.8000      41.713    0.405112    0.484591    0.471442    0.842509    0.746996
  451.4000      41.940    0.480816    0.483811    0.474766    0.760565    0.765391
  452.0000      42.211    0.555096    0.463917    0.478086    0.808100    0.756565
  452.6000      42.067    0.667198    0.441435    0.481403    0.703552    0.751278
  453.2000      42.303    0.606436    0.463091    0.484716    0.824073    0.731963
  453.8000      42.952    0.373011    0.480619    0.488024    0.832161    0.754853
  454.4000      43.175    0.365219    0.456744    0.491329    0.753798    0.784186
  455.0000      43.427    0.255723    0.484887    0.494629    0.765802    0.756300
  455.6000      43.695    0.405857    0.541988    0.497925    0.772581    0.752369
  456.2000      44.206    0.602691    0.555273    0.501215    0.813234    0.765340
  456.8000      44.321    0.493665    0.518911    0.504500    0.775485    0.780311
  457.4000      44.306    0.340831    0.483372    0.507780    0.744673    0.785790
  458.0000      44.792    0.370753    0.466650    0.511055    0.746313    0.772010
  458.6000      45.035    0.397735    0.490544    0.514323    0.833283    0.772175
  459.2000      45.041    0.417320    0.464996    0.517586    0.805348    0.791030
  459.8000      45.136    0.475794    0.473910    0.520843    0.734267    0.761160
  460.4000      45.269    0.668346    0.535024    0.524094    0.776522    0.771744
  461.0000      45.378    0.676649    0.566605    0.527339    0.820165    0.726663
  461.6000      45.820    0.585894    0.568927    0.530577    0.783195    0.754904
  462.2000      45.851    0.525800    0.530275    0.533809    0.758719    0.763279
  462.8000      45.688    0.659296    0.529033    0.537035    0.799775    0.742012
  463.4000      46.339    0.654469    0.542498    0.540254    0.781442    0.732586
  464.0000      46.459    0.467363    0.545912    0.543467    0.763869    0.749972
  464.6000      46.680    0.446144    0.575195    0.546673    0.735812    0.769084
  465.2000      46.839    0.660142    0.595584    0.549873    0.832293    0.783014
  465.8000      46.809    0.722542    0.618901    0.553066    0.877349    0.753074
  466.4000      46.651    0.573163    0.594475    0.556253    0.814540    0.766125
  467.0000      46.940    0.420531    0.564190    0.559433    0.764107    0.757925
  467.6000      46.973    0.578810    0.569785    0.562607    0.808757    0.750802
  468.2000      47.068    0.721943    0.577133    0.565775    0.819461    0.798347
  468.8000      47.369    0.678839    0.578229    0.568936    0.754368    0.806875
  469.4000      47.678    0.545457    0.584155    0.572092    0.766382    0.770261
  470.0000      47.854    0.722095    0.609962    0.575241    0.803431    0.776586
  470.6000      48.047    0.790067    0.666524    0.578384    0.795677    0.767809
  471.2000      48.239    0.818265    0.623269    0.581521    0.753035    0.765560
  471.8000      48.477    0.731438    0.539912    0.584653    0.739205    0.759701
  472.4000      48.551    0.818689    0.577587    0.587779    0.751642    0.762641
  473.0000      48.631    0.816022    0.621046    0.590900    0.831653    0.798707
  473.6000      48.940    0.471772    0.587417    0.594015    0.827747    0.775962
  474.2000      48.689    0.383335    0.595453    0.597125    0.793999    0.764428
  474.8000      48.779    0.564973    0.624267    0.600230    0.811489    0.794128
  475.4000      49.135    0.623533    0.601857    0.603330    0.810730    0.765299
  476.0000      49.230    0.631407    0.580033    0.606425    0.763432    0.745278
  476.6000      48.737    0.640515    0.600920    0.609516    0.779348    0.771545
  477.2000      49.295    0.677536    0.620305    0.612602    0.832991    0.778252
  477.8000      49.241    0.589369    0.591758    0.615684    0.825970    0.772805
  478.4000      49.514    0.407009    0.586953    0.618762    0.801211    0.780477
  479.0000      49.462    0.432182    0.647501    0.621836    0.867357    0.764270
  479.6000      49.735    0.664181    0.674347    0.624906    0.866501    0.734183
  480.2000      49.789    0.693540    0.671034    0.627972    0.839673    0.775669
  480.8000      49.893    0.590109    0.635618    0.631034    0.764505    0.732608
  481.4000      50.423    0.658336    0.562231    0.634093    0.742333    0.705277
  482.0000      50.672    0.721330    0.587891    0.637149    0.791789    0.724490
  482.6000      50.914    0.769633    0.615500    0.640201    0.732386    0.749274
  483.2000      50.972    0.719512    0.622073    0.643250    0.727637    0.789840
  483.8000      50.941    0.630983    0.621074    0.646297    0.764217    0.752755
  484.4000      50.883    0.760485    0.649003    0.649340    0.715831    0.708760
  485.0000      51.137    0.777658    0.636369    0.652380    0.673683    0.774329
  485.6000      51.315    0.696096    0.610589    0.655417    0.626202    0.767195
  486.2000      51.366    0.566266    0.642725    0.658451    0.817656    0.777491
  486.8000      50.603    0.760340    0.689074    0.661483    0.862368    0.747600
  487.4000      51.612    0.806887    0.699063    0.664512    0.810747    0.788308
  488.0000      51.640    0.675078    0.698894    0.667538    0.799144    0.790298
