Version =  1.64
NumCams = 1
Cam     Date       Time        Roll     Pitch       Yaw
---  ----------  --------  --------  --------  --------
101  04/21/2013  08:00:00      0.00     0.00      0.00
-------------------------------------------------------
Extinction Fit: Multi-Day = 2
Extinction Coef Scale     = 1.008800
Extinction Coef Rayleigh  = 2.846974
Extinction Coef Oxygen2   = 2.846974
Extinction Coef Ozone     = 0.761201
Extinction Coef Dust      = 17.575153s
Extinction Coef Water     = 12.857024
-------------------------------------------------------
Number of wavelengths      = 1209
Responsivity normalization = 302172611547.561830
-------------------------------------------------------
Wave(nm)  WeightSum   DayResp     CumResp     SmoothResp  DayExtn     CumExtn
  350.0000       0.552    0.987745    0.987745    0.987745    0.422053    0.422053
  350.6000       0.553    0.989252    0.989252    0.989252    0.423186    0.423186
  351.2000       0.554    0.991004    0.991004    0.991004    0.426129    0.426129
  351.8000       0.554    0.991947    0.991947    0.991947    0.432321    0.432321
  352.4000       0.554    0.991804    0.991804    0.991804    0.436508    0.436508
  353.0000       0.554    0.991622    0.991622    0.991622    0.437178    0.437178
  353.6000       0.555    0.992499    0.992499    0.992499    0.437946    0.437946
  354.2000       0.556    0.994270    0.994270    0.994270    0.440015    0.440015
  354.8000       0.556    0.995773    0.995773    0.995773    0.442683    0.442683
  355.4000       0.557    0.996087    0.996087    0.996087    0.444467    0.444467
  356.0000       0.556    0.995794    0.995794    0.995794    0.444983    0.444983
  356.6000       0.557    0.995997    0.995997    0.995997    0.447808    0.447808
  357.2000       0.557    0.997288    0.997288    0.997288     0.45347     0.45347
  357.8000       0.558    0.999080    0.999080    0.999080    0.456787    0.456787
  358.4000       0.559    1.000575    1.000575    1.000575    0.457365    0.457365
  359.0000       0.560    1.001836    1.001836    1.001836    0.459021    0.459021
  359.6000       0.561    1.003794    1.003794    1.003794    0.461592    0.461592
  360.2000       0.562    1.003500    1.003500    1.003500    0.463242    0.463242
  360.8000       0.564    1.025402    1.025402    1.025402    0.463634    0.463634
  361.4000       0.566    0.943775    0.943775    0.943775    0.464014    0.464014
  362.0000       0.567    1.422155    1.422155    1.422155    0.468076    0.468076
  362.6000       0.567    0.281277    0.281277    0.281277    0.474978    0.474978
  363.2000       0.568    0.125454    0.125454    0.125454    0.478591    0.478591
  363.8000       0.570    0.123205    0.123205    0.123205    0.479646    0.479646
  364.4000       0.572    0.123158    0.123158    0.123158    0.482569    0.482569
  365.0000       0.574    0.123959    0.123959    0.123959    0.485036    0.485036
  365.6000       0.576    0.124310    0.124310    0.124310    0.484818    0.484818
  366.2000       0.579    0.125297    0.125297    0.125297    0.487513    0.487513
  366.8000       0.582    0.124492    0.124492    0.124492    0.494538    0.494538
  367.4000       0.585    0.129606    0.129606    0.129606    0.498387    0.498387
  368.0000       0.589    0.089678    0.089678    0.089678    0.498156    0.498156
  368.6000       0.594    0.067647    0.067647    0.067647    0.499193    0.499193
  369.2000       0.599    0.069252    0.069252    0.069252    0.502123    0.502123
  369.8000       0.605    0.068702    0.068702    0.068702    0.505072    0.505072
  370.4000       0.610    0.073545    0.073545    0.073545    0.506287    0.506287
  371.0000       0.617    0.054420    0.054420    0.054420    0.506102    0.506102
  371.6000       0.624    0.048075    0.048075    0.048075    0.509312    0.509312
  372.2000       0.633    0.049567    0.049567    0.049567    0.515703    0.515703
  372.8000       0.644    0.050348    0.050348    0.050348    0.518624    0.518624
  373.4000       0.657    0.043168    0.043168    0.043168    0.518406    0.518406
  374.0000       0.671    0.039652    0.039652    0.039652    0.519764    0.519764
  374.6000       0.686    0.039314    0.039314    0.039314     0.52275     0.52275
  375.2000       0.702    0.034607    0.034607    0.034607    0.525599    0.525599
  375.8000       0.721    0.034559    0.034559    0.034559    0.526552    0.526552
  376.4000       0.745    0.033073    0.033073    0.033073    0.526463    0.526463
  377.0000       0.773    0.031092    0.031092    0.031092    0.530279    0.530279
  377.6000       0.805    0.029753    0.029753    0.029753    0.536611    0.536611
  378.2000       0.838    0.030203    0.030203    0.030203    0.538628    0.538628
  378.8000       0.872    0.027855    0.027855    0.027855    0.537725    0.537725
  379.4000       0.905    0.027667    0.027667    0.027667    0.538657    0.538657
  380.0000       0.938    0.025556    0.025556    0.025556    0.541303    0.541303
  380.6000       0.969    0.025193    0.025193    0.025193    0.544008    0.544008
  381.2000       0.999    0.023317    0.023317    0.023317     0.54482     0.54482
  381.8000       1.030    0.022690    0.022690    0.022690    0.544918    0.544918
  382.4000       1.064    0.022211    0.022211    0.022211    0.549052    0.549052
  383.0000       1.105    0.021194    0.021194    0.021194    0.555274    0.555274
  383.6000       1.150    0.020972    0.020972    0.020972    0.557784    0.557784
  384.2000       1.191    0.019783    0.019783    0.019783    0.558037    0.558037
  384.8000       1.227    0.019940    0.019940    0.019940    0.559371    0.559371
  385.4000       1.259    0.019457    0.019457    0.019457    0.561833    0.561833
  386.0000       1.289    0.018536    0.018536    0.018536    0.564371    0.564371
  386.6000       1.318    0.017771    0.017771    0.017771     0.56534     0.56534
  387.2000       1.346    0.017162    0.017162    0.017162    0.566279    0.566279
  387.8000       1.373    0.016923    0.016923    0.016923    0.568909    0.568909
  388.4000       1.399    0.016303    0.016303    0.016303    0.572041    0.572041
  389.0000       1.421    0.015496    0.015496    0.015496    0.575217    0.575217
  389.6000       1.441    0.014801    0.014801    0.014801    0.577871    0.577871
  390.2000       1.459    0.014349    0.014349    0.014349    0.579068    0.579068
  390.8000       1.477    0.013621    0.013621    0.013621     0.57983     0.57983
  391.4000       1.495    0.012957    0.012957    0.012957    0.582259    0.582259
  392.0000       1.512    0.012428    0.012428    0.012428    0.584989    0.584989
  392.6000       1.527    0.011946    0.011946    0.011946    0.586412    0.586412
  393.2000       1.538    0.011370    0.011370    0.011370    0.585648    0.585648
  393.8000       1.549    0.011005    0.011005    0.011005    0.586607    0.586607
  394.4000       1.559    0.010535    0.010535    0.010535    0.592474    0.592474
  395.0000       1.568    0.010138    0.010138    0.010138    0.597402    0.597402
  395.6000       1.576    0.009621    0.009621    0.009621     0.59783     0.59783
  396.2000       1.581    0.009257    0.009257    0.009257    0.597688    0.597688
  396.8000       1.586    0.008796    0.008796    0.008796    0.599033    0.599033
  397.4000       1.590    0.008390    0.008390    0.008390    0.601231    0.601231
  398.0000       1.593    0.008026    0.008026    0.008026     0.60353     0.60353
  398.6000       1.596    0.007632    0.007632    0.007632    0.605202    0.605202
  399.2000       1.598    0.007231    0.007231    0.007231    0.605657    0.605657
  399.8000       1.599    0.006940    0.006940    0.006940    0.605528    0.605528
  400.4000       1.599    0.006605    0.006605    0.006605    0.608319    0.608319
  401.0000       1.597    0.006249    0.006249    0.006249    0.613982    0.613982
  401.6000       1.595    0.005980    0.005980    0.005980    0.617333    0.617333
  402.2000       1.594    0.005705    0.005705    0.005705    0.617824    0.617824
  402.8000       1.592    0.005422    0.005422    0.005422    0.618439    0.618439
  403.4000       1.590    0.005204    0.005204    0.005204    0.619973    0.619973
  404.0000       1.588    0.004982    0.004982    0.004982    0.621979    0.621979
  404.6000       1.586    0.004736    0.004736    0.004736    0.623043    0.623043
  405.2000       1.583    0.004511    0.004511    0.004511    0.623564    0.623564
  405.8000       1.579    0.004333    0.004333    0.004333    0.626107    0.626107
  406.4000       1.575    0.004151    0.004151    0.004151    0.629156    0.629156
  407.0000       1.570    0.003984    0.003984    0.003984    0.632403    0.632403
  407.6000       1.566    0.003814    0.003814    0.003814    0.634971    0.634971
  408.2000       1.562    0.003650    0.003650    0.003650    0.636372    0.636372
  408.8000       1.557    0.003525    0.003525    0.003525    0.636182    0.636182
  409.4000       1.551    0.003372    0.003372    0.003372    0.637698    0.637698
  410.0000       1.545    0.003263    0.003263    0.003263    0.640013    0.640013
  410.6000       1.538    0.003151    0.003151    0.003151    0.641822    0.641822
  411.2000       1.532    0.003041    0.003041    0.003041    0.642404    0.642404
  411.8000       1.525    0.002950    0.002950    0.002950    0.643619    0.643619
  412.4000       1.518    0.002850    0.002850    0.002850    0.646117    0.646117
  413.0000       1.511    0.002762    0.002762    0.002762    0.649009    0.649009
  413.6000       1.505    0.002693    0.002693    0.002693    0.651806    0.651806
  414.2000       1.498    0.002616    0.002616    0.002616    0.654013    0.654013
  414.8000       1.491    0.002545    0.002545    0.002545    0.654418    0.654418
  415.4000       1.484    0.002485    0.002485    0.002485    0.654842    0.654842
  416.0000       1.478    0.002427    0.002427    0.002427    0.656799    0.656799
  416.6000       1.471    0.002370    0.002370    0.002370    0.658615    0.658615
  417.2000       1.464    0.002324    0.002324    0.002324    0.660298    0.660298
  417.8000       1.457    0.002265    0.002265    0.002265    0.662501    0.662501
  418.4000       1.451    0.002222    0.002222    0.002222     0.66349     0.66349
  419.0000       1.445    0.002175    0.002175    0.002175    0.662739    0.662739
  419.6000       1.439    0.002137    0.002137    0.002137    0.664145    0.664145
  420.2000       1.434    0.002088    0.002088    0.002088      0.6667      0.6667
  420.8000       1.429    0.002048    0.002048    0.002048    0.669708    0.669708
  421.4000       1.424    0.002005    0.002005    0.002005    0.672265    0.672265
  422.0000       1.418    0.001969    0.001969    0.001969    0.673874    0.673874
  422.6000       1.412    0.001925    0.001925    0.001925    0.673666    0.673666
  423.2000       1.407    0.001888    0.001888    0.001888    0.674943    0.674943
  423.8000       1.402    0.001852    0.001852    0.001852    0.677289    0.677289
  424.4000       1.397    0.001816    0.001816    0.001816    0.679298    0.679298
  425.0000       1.391    0.001779    0.001779    0.001779    0.679669    0.679669
  425.6000       1.385    0.001746    0.001746    0.001746    0.679942    0.679942
  426.2000       1.379    0.001714    0.001714    0.001714    0.682255    0.682255
  426.8000       1.374    0.001679    0.001679    0.001679     0.68514     0.68514
  427.4000       1.369    0.001650    0.001650    0.001650    0.688043    0.688043
  428.0000       1.364    0.001617    0.001617    0.001617    0.690212    0.690212
  428.6000       1.358    0.001589    0.001589    0.001589    0.690352    0.690352
  429.2000       1.352    0.001559    0.001559    0.001559    0.690072    0.690072
  429.8000       1.347    0.001527    0.001527    0.001527    0.691936    0.691936
  430.4000       1.341    0.001501    0.001501    0.001501    0.694051    0.694051
  431.0000       1.337    0.001477    0.001477    0.001477    0.695655    0.695655
  431.6000       1.332    0.001449    0.001449    0.001449    0.697145    0.697145
  432.2000       1.327    0.001426    0.001426    0.001426    0.698012    0.698012
  432.8000       1.321    0.001402    0.001402    0.001402    0.698022    0.698022
  433.4000       1.316    0.001377    0.001377    0.001377    0.699346    0.699346
  434.0000       1.310    0.001353    0.001353    0.001353     0.70124     0.70124
  434.6000       1.304    0.001330    0.001330    0.001330    0.703502    0.703502
  435.2000       1.299    0.001309    0.001309    0.001309    0.705577    0.705577
  435.8000       1.294    0.001289    0.001289    0.001289    0.707461    0.707461
  436.4000       1.289    0.001270    0.001270    0.001270     0.70809     0.70809
  437.0000       1.284    0.001248    0.001248    0.001248    0.709047    0.709047
  437.6000       1.279    0.001230    0.001230    0.001230    0.710316    0.710316
  438.2000       1.273    0.001210    0.001210    0.001210    0.711404    0.711404
  438.8000       1.267    0.001192    0.001192    0.001192     0.71269     0.71269
  439.4000       1.261    0.001173    0.001173    0.001173    0.713993    0.713993
  440.0000       1.256    0.001158    0.001158    0.001158     0.71416     0.71416
  440.6000       1.251    0.001140    0.001140    0.001140    0.714688    0.714688
  441.2000       1.246    0.001124    0.001124    0.001124    0.716202    0.716202
  441.8000       1.241    0.001109    0.001109    0.001109    0.717767    0.717767
  442.4000       1.236    0.001094    0.001094    0.001094    0.719522    0.719522
  443.0000       1.232    0.001081    0.001081    0.001081    0.721248    0.721248
  443.6000       1.228    0.001067    0.001067    0.001067    0.722729    0.722729
  444.2000       1.224    0.001054    0.001054    0.001054     0.72423     0.72423
  444.8000       1.220    0.001040    0.001040    0.001040     0.72435     0.72435
  445.4000       1.215    0.001028    0.001028    0.001028    0.725123    0.725123
  446.0000       1.211    0.001017    0.001017    0.001017    0.727172    0.727172
  446.6000       1.206    0.001006    0.001006    0.001006    0.729078    0.729078
  447.2000       1.201    0.000992    0.000992    0.000992    0.730617    0.730617
  447.8000       1.195    0.000981    0.000981    0.000981     0.73166     0.73166
  448.4000       1.190    0.000969    0.000969    0.000969    0.731056    0.731056
  449.0000       1.185    0.000958    0.000958    0.000958    0.729873    0.729873
  449.6000       1.181    0.000948    0.000948    0.000948    0.731428    0.731428
  450.2000       1.177    0.000937    0.000937    0.000937    0.734045    0.734045
  450.8000       1.173    0.000927    0.000927    0.000927    0.737044    0.737044
  451.4000       1.168    0.000918    0.000918    0.000918    0.739571    0.739571
  452.0000       1.162    0.000908    0.000908    0.000908     0.74149     0.74149
  452.6000       1.158    0.000899    0.000899    0.000899    0.741719    0.741719
  453.2000       1.154    0.000890    0.000890    0.000890    0.742743    0.742743
  453.8000       1.150    0.000882    0.000882    0.000882    0.744426    0.744426
  454.4000       1.145    0.000873    0.000873    0.000873    0.746191    0.746191
  455.0000       1.141    0.000865    0.000865    0.000865    0.747384    0.747384
  455.6000       1.137    0.000856    0.000856    0.000856     0.74774     0.74774
  456.2000       1.133    0.000849    0.000849    0.000849    0.747562    0.747562
  456.8000       1.129    0.000841    0.000841    0.000841     0.74882     0.74882
  457.4000       1.124    0.000831    0.000831    0.000831    0.749992    0.749992
  458.0000       1.119    0.000823    0.000823    0.000823    0.751434    0.751434
  458.6000       1.114    0.000814    0.000814    0.000814     0.75297     0.75297
  459.2000       1.110    0.000808    0.000808    0.000808     0.75442     0.75442
  459.8000       1.107    0.000800    0.000800    0.000800    0.755605    0.755605
  460.4000       1.103    0.000792    0.000792    0.000792    0.756821    0.756821
  461.0000       1.098    0.000784    0.000784    0.000784    0.756844    0.756844
  461.6000       1.093    0.000776    0.000776    0.000776     0.75783     0.75783
  462.2000       1.089    0.000768    0.000768    0.000768    0.759062    0.759062
  462.8000       1.085    0.000763    0.000763    0.000763    0.759612    0.759612
  463.4000       1.082    0.000756    0.000756    0.000756     0.76019     0.76019
  464.0000       1.079    0.000749    0.000749    0.000749    0.760854    0.760854
  464.6000       1.074    0.000742    0.000742    0.000742     0.76074     0.76074
  465.2000       1.070    0.000736    0.000736    0.000736    0.761524    0.761524
  465.8000       1.065    0.000729    0.000729    0.000729    0.762985    0.762985
  466.4000       1.061    0.000723    0.000723    0.000723    0.764562    0.764562
  467.0000       1.057    0.000717    0.000717    0.000717    0.766308    0.766308
  467.6000       1.054    0.000712    0.000712    0.000712    0.768017    0.768017
  468.2000       1.051    0.000706    0.000706    0.000706    0.769482    0.769482
  468.8000       1.047    0.000700    0.000700    0.000700    0.771068    0.771068
  469.4000       1.041    0.000694    0.000694    0.000694    0.771121    0.771121
  470.0000       1.036    0.000687    0.000687    0.000687    0.771277    0.771277
  470.6000       1.032    0.000682    0.000682    0.000682    0.772041    0.772041
  471.2000       1.029    0.000677    0.000677    0.000677    0.772654    0.772654
  471.8000       1.026    0.000673    0.000673    0.000673    0.773191    0.773191
  472.4000       1.022    0.000667    0.000667    0.000667    0.773799    0.773799
  473.0000       1.018    0.000662    0.000662    0.000662    0.774238    0.774238
  473.6000       1.013    0.000656    0.000656    0.000656    0.774251    0.774251
  474.2000       1.009    0.000651    0.000651    0.000651    0.773731    0.773731
  474.8000       1.005    0.000646    0.000646    0.000646    0.773875    0.773875
  475.4000       1.001    0.000642    0.000642    0.000642    0.774517    0.774517
  476.0000       0.998    0.000637    0.000637    0.000637    0.775152    0.775152
  476.6000       0.995    0.000632    0.000632    0.000632    0.775896    0.775896
  477.2000       0.992    0.000629    0.000629    0.000629    0.776702    0.776702
  477.8000       0.988    0.000625    0.000625    0.000625     0.77752     0.77752
  478.4000       0.984    0.000621    0.000621    0.000621    0.778303    0.778303
  479.0000       0.980    0.000616    0.000616    0.000616    0.779003    0.779003
  479.6000       0.976    0.000611    0.000611    0.000611    0.780413    0.780413
  480.2000       0.972    0.000607    0.000607    0.000607    0.781169    0.781169
  480.8000       0.969    0.000603    0.000603    0.000603     0.78201     0.78201
  481.4000       0.966    0.000599    0.000599    0.000599    0.783553    0.783553
  482.0000       0.962    0.000595    0.000595    0.000595    0.785569    0.785569
  482.6000       0.957    0.000591    0.000591    0.000591    0.786317    0.786317
  483.2000       0.953    0.000586    0.000586    0.000586    0.786477    0.786477
  483.8000       0.949    0.000582    0.000582    0.000582    0.788431    0.788431
  484.4000       0.944    0.000578    0.000578    0.000578    0.790935    0.790935
  485.0000       0.941    0.000573    0.000573    0.000573    0.793542    0.793542
  485.6000       0.937    0.000569    0.000569    0.000569    0.795539    0.795539
  486.2000       0.934    0.000567    0.000567    0.000567    0.796053    0.796053
